PE FL                   SPECTRUM    ASCII       PEDS        1.60        
  -1
NCPH77.SP
22/06/09
13:19:16.00
22/06/09
13:22:04.00
JVD

600.500000
1









LS50-B
330.00
7.50
7.50
SCAN
1
20
100
100
0
300
0
1
0
1
7
ON
360 330 
0 0 0
#HDR
-1
-1
#GR
NM

0.00002384185791015625
0.0
360.000000
0.500000
482
8
158.488604
1.040934
#DATA
360.000000	11.057333  
360.500000	12.036311  
361.000000	13.070648  
361.500000	14.218988  
362.000000	15.480965  
362.500000	16.836592  
363.000000	18.231708  
363.500000	19.705220  
364.000000	21.264714  
364.500000	22.883520  
365.000000	24.619602  
365.500000	26.450839  
366.000000	28.366751  
366.500000	30.302844  
367.000000	32.376098  
367.500000	34.543946  
368.000000	36.754706  
368.500000	38.998068  
369.000000	41.237777  
369.500000	43.492239  
370.000000	45.671665  
370.500000	47.883222  
371.000000	50.089860  
371.500000	52.338612  
372.000000	54.583188  
372.500000	56.844423  
373.000000	59.130806  
373.500000	61.408883  
374.000000	63.690553  
374.500000	65.949885  
375.000000	68.277578  
375.500000	70.574726  
376.000000	72.832392  
376.500000	75.020944  
377.000000	77.120708  
377.500000	79.124254  
378.000000	81.077859  
378.500000	83.051600  
379.000000	85.073022  
379.500000	87.193839  
380.000000	89.372541  
380.500000	91.653343  
381.000000	93.941145  
381.500000	96.336174  
382.000000	98.739843  
382.500000	101.080234 
383.000000	103.485724 
383.500000	105.860702 
384.000000	108.280971 
384.500000	110.648085 
385.000000	113.058147 
385.500000	115.481259 
386.000000	117.822310 
386.500000	120.201641 
387.000000	122.490481 
387.500000	124.885224 
388.000000	127.242267 
388.500000	129.507144 
389.000000	131.662384 
389.500000	133.581594 
390.000000	135.272483 
390.500000	136.779502 
391.000000	138.262962 
391.500000	139.739390 
392.000000	141.146424 
392.500000	142.525446 
393.000000	143.859043 
393.500000	145.026162 
394.000000	146.160457 
394.500000	147.332563 
395.000000	148.490320 
395.500000	149.612694 
396.000000	150.661606 
396.500000	151.664237 
397.000000	152.471800 
397.500000	153.310161 
398.000000	154.071457 
398.500000	154.858332 
399.000000	155.604016 
399.500000	156.200484 
400.000000	156.693964 
400.500000	156.988105 
401.000000	157.311710 
401.500000	157.519242 
402.000000	157.828478 
402.500000	158.107927 
403.000000	158.354059 
403.500000	158.488604 
404.000000	158.379878 
404.500000	158.191508 
405.000000	157.738228 
405.500000	157.463236 
406.000000	157.073588 
406.500000	156.716104 
407.000000	156.452703 
407.500000	156.172645 
408.000000	155.907954 
408.500000	155.416298 
409.000000	154.961072 
409.500000	154.333117 
410.000000	153.518891 
410.500000	152.602164 
411.000000	151.560361 
411.500000	150.606411 
412.000000	149.516283 
412.500000	148.551888 
413.000000	147.736014 
413.500000	146.995741 
414.000000	146.364380 
414.500000	145.604987 
415.000000	144.807578 
415.500000	143.764323 
416.000000	142.536135 
416.500000	141.172813 
417.000000	139.772575 
417.500000	138.412781 
418.000000	137.112491 
418.500000	135.975951 
419.000000	134.754012 
419.500000	133.448956 
420.000000	132.073300 
420.500000	130.675571 
421.000000	129.142517 
421.500000	127.583886 
422.000000	126.061559 
422.500000	124.485335 
423.000000	122.820104 
423.500000	121.126997 
424.000000	119.526282 
424.500000	117.941959 
425.000000	116.416604 
425.500000	114.986217 
426.000000	113.654071 
426.500000	112.260161 
427.000000	110.832337 
427.500000	109.335528 
428.000000	107.838415 
428.500000	106.400810 
429.000000	104.937291 
429.500000	103.546588 
430.000000	102.050528 
430.500000	100.572727 
431.000000	99.011743  
431.500000	97.430863  
432.000000	95.957370  
432.500000	94.480692  
433.000000	93.084565  
433.500000	91.576747  
434.000000	90.084635  
434.500000	88.555501  
435.000000	86.970677  
435.500000	85.540401  
436.000000	84.116403  
436.500000	82.745463  
437.000000	81.346374  
437.500000	79.944908  
438.000000	78.542312  
438.500000	77.076948  
439.000000	75.756978  
439.500000	74.480666  
440.000000	73.237943  
440.500000	72.010066  
441.000000	70.729037  
441.500000	69.474333  
442.000000	68.168471  
442.500000	66.909366  
443.000000	65.667273  
443.500000	64.428954  
444.000000	63.170611  
444.500000	61.829476  
445.000000	60.498410  
445.500000	59.229384  
446.000000	57.999294  
446.500000	56.916823  
447.000000	56.002578  
447.500000	55.193717  
448.000000	54.408066  
448.500000	53.564542  
449.000000	52.658385  
449.500000	51.610802  
450.000000	50.472716  
450.500000	49.344453  
451.000000	48.241614  
451.500000	47.197827  
452.000000	46.212288  
452.500000	45.311215  
453.000000	44.420359  
453.500000	43.476577  
454.000000	42.538109  
454.500000	41.592186  
455.000000	40.630815  
455.500000	39.686099  
456.000000	38.841420  
456.500000	38.086513  
457.000000	37.333580  
457.500000	36.670969  
458.000000	36.029973  
458.500000	35.396695  
459.000000	34.680986  
459.500000	33.965768  
460.000000	33.295200  
460.500000	32.567212  
461.000000	31.827012  
461.500000	31.035516  
462.000000	30.267133  
462.500000	29.490759  
463.000000	28.759017  
463.500000	28.138403  
464.000000	27.581177  
464.500000	27.041805  
465.000000	26.454850  
465.500000	25.844971  
466.000000	25.194071  
466.500000	24.503314  
467.000000	23.849040  
467.500000	23.294876  
468.000000	22.788530  
468.500000	22.324935  
469.000000	21.900779  
469.500000	21.502545  
470.000000	21.094197  
470.500000	20.651837  
471.000000	20.243178  
471.500000	19.813931  
472.000000	19.332775  
472.500000	18.850418  
473.000000	18.386029  
473.500000	17.927881  
474.000000	17.452429  
474.500000	17.036738  
475.000000	16.686177  
475.500000	16.331965  
476.000000	16.013254  
476.500000	15.710247  
477.000000	15.409324  
477.500000	15.074372  
478.000000	14.729714  
478.500000	14.386518  
479.000000	13.995454  
479.500000	13.635889  
480.000000	13.311148  
480.500000	12.998696  
481.000000	12.706726  
481.500000	12.438766  
482.000000	12.201393  
482.500000	11.937597  
483.000000	11.672846  
483.500000	11.422877  
484.000000	11.181343  
484.500000	10.928373  
485.000000	10.686630  
485.500000	10.474500  
486.000000	10.256761  
486.500000	10.036385  
487.000000	9.822752   
487.500000	9.615170   
488.000000	9.409228   
488.500000	9.197258   
489.000000	8.990411   
489.500000	8.772833   
490.000000	8.552449   
490.500000	8.352752   
491.000000	8.157264   
491.500000	7.982351   
492.000000	7.826706   
492.500000	7.690570   
493.000000	7.531391   
493.500000	7.356812   
494.000000	7.188241   
494.500000	7.013425   
495.000000	6.835458   
495.500000	6.673786   
496.000000	6.537886   
496.500000	6.417880   
497.000000	6.295508   
497.500000	6.183952   
498.000000	6.077200   
498.500000	5.957635   
499.000000	5.834162   
499.500000	5.695914   
500.000000	5.556633   
500.500000	5.411055   
501.000000	5.271360   
501.500000	5.139468   
502.000000	5.015710   
502.500000	4.901713   
503.000000	4.780415   
503.500000	4.672688   
504.000000	4.575595   
504.500000	4.498790   
505.000000	4.417632   
505.500000	4.341591   
506.000000	4.272462   
506.500000	4.200661   
507.000000	4.113490   
507.500000	4.028559   
508.000000	3.958477   
508.500000	3.881123   
509.000000	3.827399   
509.500000	3.781965   
510.000000	3.740577   
510.500000	3.682740   
511.000000	3.615579   
511.500000	3.548636   
512.000000	3.448701   
512.500000	3.353056   
513.000000	3.277894   
513.500000	3.210656   
514.000000	3.157689   
514.500000	3.120297   
515.000000	3.103473   
515.500000	3.067145   
516.000000	3.031414   
516.500000	3.009182   
517.000000	2.973688   
517.500000	2.935587   
518.000000	2.893531   
518.500000	2.854465   
519.000000	2.813716   
519.500000	2.767346   
520.000000	2.724946   
520.500000	2.670499   
521.000000	2.616247   
521.500000	2.557379   
522.000000	2.506510   
522.500000	2.460058   
523.000000	2.425529   
523.500000	2.395277   
524.000000	2.367928   
524.500000	2.345551   
525.000000	2.313695   
525.500000	2.295395   
526.000000	2.270236   
526.500000	2.238145   
527.000000	2.201914   
527.500000	2.171775   
528.000000	2.132719   
528.500000	2.078571   
529.000000	2.038189   
529.500000	2.004142   
530.000000	1.968922   
530.500000	1.934379   
531.000000	1.916937   
531.500000	1.897463   
532.000000	1.876387   
532.500000	1.848378   
533.000000	1.828274   
533.500000	1.807022   
534.000000	1.783450   
534.500000	1.772387   
535.000000	1.750776   
535.500000	1.736269   
536.000000	1.709520   
536.500000	1.684784   
537.000000	1.667048   
537.500000	1.648915   
538.000000	1.639009   
538.500000	1.623243   
539.000000	1.608189   
539.500000	1.590805   
540.000000	1.572527   
540.500000	1.554937   
541.000000	1.531706   
541.500000	1.509238   
542.000000	1.485148   
542.500000	1.448445   
543.000000	1.416116   
543.500000	1.389413   
544.000000	1.370555   
544.500000	1.354581   
545.000000	1.346472   
545.500000	1.352888   
546.000000	1.355034   
546.500000	1.358079   
547.000000	1.362850   
547.500000	1.358322   
548.000000	1.339706   
548.500000	1.312800   
549.000000	1.287134   
549.500000	1.256893   
550.000000	1.227557   
550.500000	1.214533   
551.000000	1.210975   
551.500000	1.211338   
552.000000	1.223350   
552.500000	1.239006   
553.000000	1.248900   
553.500000	1.237872   
554.000000	1.224478   
554.500000	1.209505   
555.000000	1.183534   
555.500000	1.166457   
556.000000	1.156745   
556.500000	1.161177   
557.000000	1.161817   
557.500000	1.165099   
558.000000	1.179648   
558.500000	1.180950   
559.000000	1.173729   
559.500000	1.163907   
560.000000	1.155172   
560.500000	1.144664   
561.000000	1.138696   
561.500000	1.145705   
562.000000	1.149393   
562.500000	1.140014   
563.000000	1.133961   
563.500000	1.121879   
564.000000	1.108700   
564.500000	1.108315   
565.000000	1.119261   
565.500000	1.134757   
566.000000	1.133685   
566.500000	1.131817   
567.000000	1.128722   
567.500000	1.117829   
568.000000	1.117054   
568.500000	1.123251   
569.000000	1.138277   
569.500000	1.146528   
570.000000	1.145249   
570.500000	1.143335   
571.000000	1.124919   
571.500000	1.109343   
572.000000	1.096202   
572.500000	1.092912   
573.000000	1.096145   
573.500000	1.099163   
574.000000	1.107745   
574.500000	1.098261   
575.000000	1.090864   
575.500000	1.083458   
576.000000	1.084374   
576.500000	1.092672   
577.000000	1.110915   
577.500000	1.135525   
578.000000	1.145595   
578.500000	1.150688   
579.000000	1.145683   
579.500000	1.136517   
580.000000	1.121891   
580.500000	1.103810   
581.000000	1.084265   
581.500000	1.066140   
582.000000	1.050377   
582.500000	1.040934   
583.000000	1.046174   
583.500000	1.062986   
584.000000	1.087669   
584.500000	1.110442   
585.000000	1.126160   
585.500000	1.123698   
586.000000	1.103980   
586.500000	1.080846   
587.000000	1.056739   
587.500000	1.042897   
588.000000	1.049878   
588.500000	1.071642   
589.000000	1.101962   
589.500000	1.131721   
590.000000	1.161961   
590.500000	1.174719   
591.000000	1.173529   
591.500000	1.174876   
592.000000	1.174740   
592.500000	1.170687   
593.000000	1.167008   
593.500000	1.169443   
594.000000	1.170540   
594.500000	1.176214   
595.000000	1.194069   
595.500000	1.220687   
596.000000	1.247230   
596.500000	1.264445   
597.000000	1.280280   
597.500000	1.291129   
598.000000	1.301781   
598.500000	1.309439   
599.000000	1.298641   
599.500000	1.271875   
600.000000	1.214746   
600.500000	1.141000   

